EXPLAIN
TAG	CORPOT
TITLE	LABEL	Open Circuit Potential	Test &Identifier
DATE	LABEL	4/24/2025	Date
TIME	LABEL	12:43:11	Time
NOTES	NOTES	1	&Notes...
	
PSTAT	PSTAT	IFC1010-32247	Potentiostat
TIMEOUT	QUANT	3.00000E+001	Total &Time (s)
SAMPLETIME	QUANT	5.00000E-001	Sa&mple Period (s)
STABILITY	QUANT	0.00000E+000	Sta&bility (mV/s)
PSTATMODEL	IQUANT	64	Pstat Model
PSTATSECTION	LABEL	IFC1010-32247	Pstat Section
PSTATSERIALNO	LABEL	32247	Pstat Serial Number
CTRLMODE	IQUANT	1	Control Mode
ELECTROMETER	IQUANT	0	RE=0 or CS=1
IESTAB	IQUANT	2	I/E Stability
CASPEED	IQUANT	4	Control Amp Speed
CONVENTION	IQUANT	1	Current Convention
ICHRANGE	IQUANT	2	Ich Range
ICHRANGEMODE	TOGGLE	T	Ich Auto Range
ICHOFFSETENABLE	TOGGLE	F	Ich Offset Enable
ICHOFFSET	QUANT	0	Ich Offset (V)
ICHFILTER	IQUANT	4	Ich Filter
VCHRANGE	IQUANT	3	Vch Range
VCHRANGEMODE	TOGGLE	T	Vch Auto Range
VCHOFFSETENABLE	TOGGLE	F	Vch Offset Enable
VCHOFFSET	QUANT	0	Vch Offset (V)
VCHFILTER	IQUANT	4	Vch Filter
IERANGELOWERLIMIT	IQUANT	4	I/E Range Lower Limit
IERANGEMODE	TOGGLE	T	I/E AutoRange
IERANGE	IQUANT	11	I/E Range
ACHSELECT	IQUANT	0	Ach Select
ACHRANGE	IQUANT	2	Ach Range
ACHOFFSETENABLE	TOGGLE	F	Ach Offset Enable
ACHOFFSET	QUANT	0	Ach Offset (V)
ACHFILTER	IQUANT	1	Ach Filter
SENSECABLEID	IQUANT	14	Sense Cable ID
PWRCABLEID	IQUANT	14	Power Cable ID
DCCALDATE	LABEL	11/18/2024	DC Calibration Date
ACCALDATE	LABEL	4/18/2022	AC Calibration Date
FRAMEWORKVERSION	LABEL	7.10.3	Framework Version
INSTRUMENTVERSION	LABEL	4.91	Instrument Version
COMMVERSION	LABEL	3.10	Communications Version
CPUPLDVERSION	LABEL	2.22	CPU PLD Version
CTRLPLDVERSION	LABEL	0.00	CTRL PLD Version
PSTATPLDVERSION	LABEL	0.00	PSTAT PLD Version
CURVE	TABLE	59
	Pt	T	Vf	Vm	Ach	Over	Temp
	#	s	V vs. Ref.	V	V	bits	deg C
	0	0.508333	7.95696E-001	7.95696E-001	0.00000E+000	...........	1366.88
	1	1.01667	7.95697E-001	7.95783E-001	0.00000E+000	...........	1366.97
	2	1.525	7.95707E-001	7.95847E-001	0.00000E+000	...........	1366.97
	3	2.03333	7.95734E-001	7.95891E-001	0.00000E+000	...........	1366.97
	4	2.54167	7.95777E-001	7.95939E-001	0.00000E+000	...........	1366.97
	5	3.05	7.95829E-001	7.95945E-001	0.00000E+000	...........	1366.97
	6	3.55833	7.95878E-001	7.95961E-001	0.00000E+000	...........	1366.97
	7	4.06667	7.95918E-001	7.96044E-001	0.00000E+000	...........	1366.97
	8	4.575	7.95951E-001	7.96086E-001	0.00000E+000	...........	1366.97
	9	5.08333	7.95989E-001	7.96172E-001	0.00000E+000	...........	1366.97
	10	5.59167	7.96036E-001	7.96200E-001	0.00000E+000	...........	1366.97
	11	6.1	7.96091E-001	7.96265E-001	0.00000E+000	...........	1366.97
	12	6.60833	7.96148E-001	7.96285E-001	0.00000E+000	...........	1366.97
	13	7.11667	7.96200E-001	7.96335E-001	0.00000E+000	...........	1366.54
	14	7.625	7.96247E-001	7.96387E-001	0.00000E+000	...........	1366.54
	15	8.13333	7.96291E-001	7.96379E-001	0.00000E+000	...........	1366.54
	16	8.64167	7.96330E-001	7.96457E-001	0.00000E+000	...........	1366.61
	17	9.15	7.96367E-001	7.96487E-001	0.00000E+000	...........	1366.79
	18	9.6583	7.96405E-001	7.96583E-001	0.00000E+000	...........	1366.83
	19	10.1667	7.96450E-001	7.96640E-001	0.00000E+000	...........	1366.88
	20	10.675	7.96505E-001	7.96698E-001	0.00000E+000	...........	1366.88
	21	11.1833	7.96567E-001	7.96786E-001	0.00000E+000	...........	1366.88
	22	11.6917	7.96634E-001	7.96849E-001	0.00000E+000	...........	1366.95
	23	12.2	7.96702E-001	7.96874E-001	0.00000E+000	...........	1366.97
	24	12.7083	7.96767E-001	7.96887E-001	0.00000E+000	...........	1366.97
	25	13.2167	7.96822E-001	7.96943E-001	0.00000E+000	...........	1366.97
	26	13.725	7.96866E-001	7.97039E-001	0.00000E+000	...........	1366.97
	27	14.2333	7.96909E-001	7.97113E-001	0.00000E+000	...........	1366.97
	28	14.7417	7.96965E-001	7.97298E-001	0.00000E+000	...........	1366.97
	29	15.25	7.97041E-001	7.97287E-001	0.00000E+000	...........	1366.97
	30	15.7583	7.97130E-001	7.97289E-001	0.00000E+000	...........	1366.97
	31	16.2667	7.97210E-001	7.97329E-001	0.00000E+000	...........	1366.97
	32	16.775	7.97266E-001	7.97337E-001	0.00000E+000	...........	1367.05
	33	17.2833	7.97300E-001	7.97380E-001	0.00000E+000	...........	1367.05
	34	17.7917	7.97326E-001	7.97456E-001	0.00000E+000	...........	1366.97
	35	18.3	7.97355E-001	7.97477E-001	0.00000E+000	...........	1366.97
	36	18.8083	7.97391E-001	7.97482E-001	0.00000E+000	...........	1366.97
	37	19.3167	7.97429E-001	7.97534E-001	0.00000E+000	...........	1366.97
	38	19.825	7.97464E-001	7.97545E-001	0.00000E+000	...........	1366.97
	39	20.3333	7.97495E-001	7.97648E-001	0.00000E+000	...........	1366.97
	40	20.8417	7.97531E-001	7.97701E-001	0.00000E+000	...........	1367.05
	41	21.35	7.97576E-001	7.97740E-001	0.00000E+000	...........	1367.05
	42	21.8583	7.97628E-001	7.97697E-001	0.00000E+000	...........	1367.05
	43	22.3667	7.97672E-001	7.97673E-001	0.00000E+000	...........	1367.05
	44	22.875	7.97698E-001	7.97760E-001	0.00000E+000	...........	1366.97
	45	23.3833	7.97709E-001	7.97783E-001	0.00000E+000	...........	1366.97
	46	23.8917	7.97722E-001	7.97797E-001	0.00000E+000	...........	1366.97
	47	24.4	7.97741E-001	7.97703E-001	0.00000E+000	...........	1366.97
	48	24.9083	7.97745E-001	7.97120E-001	0.00000E+000	...........	1366.97
	49	25.4167	7.97700E-001	7.97948E-001	0.00000E+000	...........	1366.97
	50	25.925	7.97638E-001	7.98043E-001	0.00000E+000	...........	1366.97
	51	26.4333	7.97662E-001	7.98646E-001	0.00000E+000	...........	1366.97
	52	26.9417	7.97830E-001	7.98548E-001	0.00000E+000	...........	1367.05
	53	27.45	7.98081E-001	7.98114E-001	0.00000E+000	...........	1367.05
	54	27.9583	7.98281E-001	7.98171E-001	0.00000E+000	...........	1366.97
	55	28.4667	7.98345E-001	7.98282E-001	0.00000E+000	...........	1366.97
	56	28.975	7.98312E-001	7.98305E-001	0.00000E+000	...........	1366.97
	57	29.4833	7.98277E-001	7.98611E-001	0.00000E+000	...........	1366.97
	58	29.9917	7.98299E-001	7.98573E-001	0.00000E+000	...........	1366.97
